## ORBS filter file 
# Author: Simon Prunet <prunet@cfht.hawaii.edu>
# Filter name : C4
# Filter edges are taken at 90% (FILTER_MIN) and 90% (FILTER_MAX)
# Wavelength in nm | Transmission percentage
# FILTER_MIN 798
# FILTER_MAX 823
# ORDER 12
# STEP 5271.5
# PHASE_FIT_ORDER 1
# MODULATION_EFFICIENCY 0.8
1000.0000 -0.3570
999.7332 -0.3373
999.4665 -0.3217
999.1997 -0.3356
998.9330 -0.3447
998.6662 -0.3393
998.3995 -0.3231
998.1327 -0.2890
997.8660 -0.2792
997.5992 -0.2936
997.3324 -0.2816
997.0657 -0.2538
996.7989 -0.2430
996.5322 -0.2376
996.2654 -0.2182
995.9987 -0.1970
995.7319 -0.2050
995.4652 -0.2112
995.1984 -0.2048
994.9316 -0.2021
994.6649 -0.2101
994.3981 -0.2339
994.1314 -0.2836
993.8646 -0.3048
993.5979 -0.2983
993.3311 -0.3146
993.0644 -0.3439
992.7976 -0.3522
992.5308 -0.3538
992.2641 -0.3790
991.9973 -0.4069
991.7306 -0.4005
991.4638 -0.3920
991.1971 -0.3702
990.9303 -0.3525
990.6636 -0.3466
990.3968 -0.3203
990.1300 -0.2616
989.8633 -0.2218
989.5965 -0.1999
989.3298 -0.1930
989.0630 -0.1946
988.7963 -0.1844
988.5295 -0.1705
988.2628 -0.1699
987.9960 -0.1709
987.7292 -0.1634
987.4625 -0.1603
987.1957 -0.1838
986.9290 -0.1930
986.6622 -0.1632
986.3955 -0.1601
986.1287 -0.1985
985.8620 -0.2250
985.5952 -0.2405
985.3284 -0.2415
985.0617 -0.2346
984.7949 -0.2396
984.5282 -0.2481
984.2614 -0.2495
983.9947 -0.2500
983.7279 -0.2500
983.4612 -0.2525
983.1944 -0.2696
982.9276 -0.2885
982.6609 -0.3125
982.3941 -0.3338
982.1274 -0.3508
981.8606 -0.3802
981.5939 -0.4207
981.3271 -0.4302
981.0604 -0.4227
980.7936 -0.4090
980.5268 -0.3936
980.2601 -0.4074
979.9933 -0.4242
979.7266 -0.4322
979.4598 -0.4393
979.1931 -0.4415
978.9263 -0.4406
978.6596 -0.4321
978.3928 -0.4274
978.1260 -0.4285
977.8593 -0.4121
977.5925 -0.3801
977.3258 -0.3585
977.0590 -0.3425
976.7923 -0.3523
976.5255 -0.3694
976.2588 -0.3261
975.9920 -0.2788
975.7252 -0.3049
975.4585 -0.3257
975.1917 -0.3171
974.9250 -0.3065
974.6582 -0.2905
974.3915 -0.2710
974.1247 -0.2465
973.8580 -0.2489
973.5912 -0.2751
973.3244 -0.3012
973.0577 -0.3273
972.7909 -0.3263
972.5242 -0.3178
972.2574 -0.3481
971.9907 -0.3804
971.7239 -0.3644
971.4572 -0.3497
971.1904 -0.3417
970.9236 -0.3435
970.6569 -0.3696
970.3901 -0.4030
970.1234 -0.4468
969.8566 -0.4538
969.5899 -0.4293
969.3231 -0.4044
969.0564 -0.3793
968.7896 -0.3816
968.5228 -0.3912
968.2561 -0.3930
967.9893 -0.3937
967.7226 -0.3851
967.4558 -0.3767
967.1891 -0.3687
966.9223 -0.3661
966.6556 -0.3768
966.3888 -0.3799
966.1220 -0.3724
965.8553 -0.3548
965.5885 -0.3287
965.3218 -0.3200
965.0550 -0.3200
964.7883 -0.3505
964.5215 -0.3889
964.2548 -0.3763
963.9880 -0.3604
963.7212 -0.3700
963.4545 -0.3734
963.1877 -0.3461
962.9210 -0.3275
962.6542 -0.3291
962.3875 -0.3068
962.1207 -0.2519
961.8540 -0.2270
961.5872 -0.2270
961.3204 -0.2403
961.0537 -0.2600
960.7869 -0.2048
960.5202 -0.1306
960.2534 -0.1339
959.9867 -0.1431
959.7199 -0.1441
959.4532 -0.1485
959.1864 -0.1682
958.9196 -0.1762
958.6529 -0.1570
958.3861 -0.1585
958.1194 -0.1879
957.8526 -0.2231
957.5859 -0.2631
957.3191 -0.2568
957.0524 -0.2285
956.7856 -0.2629
956.5188 -0.3125
956.2521 -0.3552
955.9853 -0.3967
955.7186 -0.4276
955.4518 -0.4586
955.1851 -0.4895
954.9183 -0.5146
954.6516 -0.5263
954.3848 -0.5424
954.1180 -0.5643
953.8513 -0.5166
953.5845 -0.4136
953.3178 -0.4029
953.0510 -0.4349
952.7843 -0.4600
952.5175 -0.4835
952.2508 -0.4676
951.9840 -0.4483
951.7172 -0.4200
951.4505 -0.3933
951.1837 -0.3736
950.9170 -0.3470
950.6502 -0.3054
950.3835 -0.2927
950.1167 -0.3173
949.8499 -0.3697
949.5832 -0.4439
949.3164 -0.4604
949.0497 -0.4508
948.7829 -0.4329
948.5162 -0.4132
948.2494 -0.3614
947.9827 -0.3125
947.7159 -0.3354
947.4491 -0.3628
947.1824 -0.4093
946.9156 -0.4552
946.6489 -0.5000
946.3821 -0.5010
946.1154 -0.4465
945.8486 -0.4100
945.5819 -0.3870
945.3151 -0.3889
945.0483 -0.4017
944.7816 -0.3774
944.5148 -0.3448
944.2481 -0.4201
943.9813 -0.4936
943.7146 -0.4600
943.4478 -0.4244
943.1811 -0.3807
942.9143 -0.3591
942.6475 -0.3841
942.3808 -0.4249
942.1140 -0.4852
941.8473 -0.5177
941.5805 -0.5295
941.3138 -0.5170
941.0470 -0.4940
940.7803 -0.5199
940.5135 -0.5562
940.2467 -0.5028
939.9800 -0.4500
939.7132 -0.4628
939.4465 -0.4808
939.1797 -0.5198
938.9130 -0.5223
938.6462 -0.4498
938.3795 -0.4124
938.1127 -0.4177
937.8459 -0.4345
937.5792 -0.4596
937.3124 -0.4846
937.0457 -0.5097
936.7789 -0.4640
936.5122 -0.4038
936.2454 -0.4137
935.9787 -0.4260
935.7119 -0.4266
935.4451 -0.4273
935.1784 -0.4289
934.9116 -0.4427
934.6449 -0.4811
934.3781 -0.4735
934.1114 -0.4111
933.8446 -0.3853
933.5779 -0.3858
933.3111 -0.3977
933.0443 -0.4143
932.7776 -0.3939
932.5108 -0.3661
932.2441 -0.3665
931.9773 -0.3692
931.7106 -0.3836
931.4438 -0.3729
931.1771 -0.2678
930.9103 -0.1802
930.6435 -0.1274
930.3768 -0.1123
930.1100 -0.1411
929.8433 -0.1289
929.5765 -0.0878
929.3098 -0.0380
929.0430 0.0154
928.7763 -0.0565
928.5095 -0.1526
928.2427 -0.1709
927.9760 -0.1826
927.7092 -0.1553
927.4425 -0.1523
927.1757 -0.2371
926.9090 -0.3068
926.6422 -0.3474
926.3755 -0.3364
926.1087 -0.2665
925.8419 -0.2810
925.5752 -0.3535
925.3084 -0.3740
925.0417 -0.3740
924.7749 -0.3902
924.5082 -0.4094
924.2414 -0.4286
923.9747 -0.4461
923.7079 -0.4466
923.4411 -0.4511
923.1744 -0.4698
922.9076 -0.4826
922.6409 -0.4842
922.3741 -0.5432
922.1074 -0.6664
921.8406 -0.6994
921.5739 -0.6717
921.3071 -0.6756
921.0403 -0.6916
920.7736 -0.6166
920.5068 -0.5253
920.2401 -0.4793
919.9733 -0.4423
919.7066 -0.4748
919.4398 -0.4970
919.1731 -0.4837
918.9063 -0.4810
918.6395 -0.4981
918.3728 -0.4783
918.1060 -0.4180
917.8393 -0.3950
917.5725 -0.3966
917.3058 -0.4219
917.0390 -0.4560
916.7723 -0.5034
916.5055 -0.5530
916.2387 -0.5211
915.9720 -0.4914
915.7052 -0.4957
915.4385 -0.5000
915.1717 -0.5043
914.9050 -0.5078
914.6382 -0.5099
914.3715 -0.4868
914.1047 -0.4367
913.8379 -0.4510
913.5712 -0.5071
913.3044 -0.5525
913.0377 -0.5941
912.7709 -0.6325
912.5042 -0.6704
912.2374 -0.7424
911.9707 -0.8013
911.7039 -0.7496
911.4371 -0.7064
911.1704 -0.6909
910.9036 -0.6818
910.6369 -0.6839
910.3701 -0.7497
910.1034 -0.8825
909.8366 -0.9258
909.5699 -0.9125
909.3031 -0.8846
909.0363 -0.8515
908.7696 -0.8521
908.5028 -0.8579
908.2361 -0.9013
907.9693 -0.9467
907.7026 -1.0054
907.4358 -1.0363
907.1691 -0.9792
906.9023 -0.9510
906.6355 -0.9729
906.3688 -0.9276
906.1020 -0.8129
905.8353 -0.7726
905.5685 -0.7785
905.3018 -0.7677
905.0350 -0.7512
904.7683 -0.7175
904.5015 -0.6812
904.2347 -0.6041
903.9680 -0.5290
903.7012 -0.4703
903.4345 -0.4518
903.1677 -0.5569
902.9010 -0.6244
902.6342 -0.6281
902.3675 -0.6846
902.1007 -0.7945
901.8339 -0.8270
901.5672 -0.8126
901.3004 -0.8453
901.0337 -0.8939
900.7669 -0.8632
900.5002 -0.8210
900.2334 -0.8903
899.9667 -0.9626
899.6999 -1.0554
899.4331 -1.1154
899.1664 -1.0770
898.8996 -1.0377
898.6329 -0.9972
898.3661 -0.9569
898.0994 -0.9169
897.8326 -0.8749
897.5659 -0.8317
897.2991 -0.7893
897.0323 -0.7471
896.7656 -0.7847
896.4988 -0.8324
896.2321 -0.6931
895.9653 -0.5664
895.6986 -0.5232
895.4318 -0.4984
895.1651 -0.5272
894.8983 -0.5657
894.6315 -0.6202
894.3648 -0.6630
894.0980 -0.6944
893.8313 -0.7411
893.5645 -0.7966
893.2978 -0.7934
893.0310 -0.7715
892.7643 -0.7728
892.4975 -0.7790
892.2307 -0.9903
891.9640 -1.1772
891.6972 -1.2081
891.4305 -1.2466
891.1637 -1.3063
890.8970 -1.3348
890.6302 -1.3134
890.3635 -1.2358
890.0967 -1.1046
889.8299 -1.0794
889.5632 -1.1147
889.2964 -1.1026
889.0297 -1.0760
888.7629 -1.0005
888.4962 -0.9177
888.2294 -0.7555
887.9627 -0.6129
887.6959 -0.5911
887.4291 -0.5389
887.1624 -0.4028
886.8956 -0.2985
886.6289 -0.2435
886.3621 -0.2782
886.0954 -0.3967
885.8286 -0.4654
885.5619 -0.5065
885.2951 -0.5398
885.0283 -0.5707
884.7616 -0.6269
884.4948 -0.6850
884.2281 -0.6850
883.9613 -0.6811
883.6946 -0.6545
883.4278 -0.6698
883.1611 -0.7984
882.8943 -0.8760
882.6275 -0.8760
882.3608 -0.9308
882.0940 -1.0360
881.8273 -1.0799
881.5605 -1.0906
881.2938 -1.1462
881.0270 -1.2150
880.7603 -1.2556
880.4935 -1.2928
880.2267 -1.3264
879.9600 -1.3654
879.6932 -1.4348
879.4265 -1.4684
879.1597 -1.4081
878.8930 -1.3585
878.6262 -1.3249
878.3595 -1.2609
878.0927 -1.1697
877.8259 -1.0541
877.5592 -0.9255
877.2924 -0.9007
877.0257 -0.9055
876.7589 -1.0400
876.4922 -1.1841
876.2254 -1.1867
875.9587 -1.1679
875.6919 -1.0319
875.4251 -0.9353
875.1584 -0.9401
874.8916 -1.0028
874.6249 -1.1501
874.3581 -1.1225
874.0914 -0.9411
873.8246 -0.9057
873.5579 -0.9462
873.2911 -0.9028
873.0243 -0.8361
872.7576 -0.6341
872.4908 -0.4275
872.2241 -0.4707
871.9573 -0.5446
871.6906 -0.7799
871.4238 -0.9721
871.1571 -1.0564
870.8903 -1.1600
870.6235 -1.2912
870.3568 -1.5241
870.0900 -1.8448
869.8233 -1.9025
869.5565 -1.8262
869.2898 -1.7452
869.0230 -1.6631
868.7563 -1.8105
868.4895 -1.9734
868.2227 -1.9841
867.9560 -1.9672
867.6892 -1.8109
867.4225 -1.6797
867.1557 -1.6098
866.8890 -1.5215
866.6222 -1.4073
866.3555 -1.2694
866.0887 -1.1115
865.8219 -1.1470
865.5552 -1.2787
865.2884 -1.3403
865.0217 -1.3835
864.7549 -1.2718
864.4882 -1.1520
864.2214 -1.1514
863.9547 -1.1360
863.6879 -1.0480
863.4211 -0.9742
863.1544 -0.9342
862.8876 -0.9539
862.6209 -1.0558
862.3541 -1.1825
862.0874 -1.3298
861.8206 -1.3518
861.5539 -1.3129
861.2871 -1.2322
861.0203 -1.1410
860.7536 -1.1813
860.4868 -1.2353
860.2201 -1.3437
859.9533 -1.4663
859.6866 -1.6568
859.4198 -1.7905
859.1531 -1.7921
858.8863 -1.8437
858.6195 -1.9627
858.3528 -1.9701
858.0860 -1.8868
857.8193 -1.7613
857.5525 -1.6157
857.2858 -1.7875
857.0190 -2.0372
856.7523 -2.1635
856.4855 -2.2604
856.2187 -2.0096
855.9520 -1.8160
855.6852 -1.8827
855.4185 -2.0143
855.1517 -2.2933
854.8850 -2.3952
854.6182 -2.2634
854.3515 -2.2095
854.0847 -2.2175
853.8179 -2.2557
853.5512 -2.3080
853.2844 -2.1455
853.0177 -1.9321
852.7509 -1.8229
852.4842 -1.7473
852.2174 -2.0893
851.9507 -2.3290
851.6839 -2.1183
851.4171 -1.8711
851.1504 -1.5430
850.8836 -1.2628
850.6169 -1.0446
850.3501 -0.8600
850.0834 -0.7015
849.8166 -0.6520
849.5498 -0.6520
849.2831 -0.6962
849.0163 -0.7507
848.7496 -0.6513
848.4828 -0.5305
848.2161 -0.2424
847.9493 -0.0089
847.6826 -0.0084
847.4158 -0.0077
847.1490 -0.0066
846.8823 -0.0060
846.6155 -0.0060
846.3488 -0.0060
846.0820 -0.0060
845.8153 -0.0060
845.5485 -0.0060
845.2818 -0.0069
845.0150 -0.0079
844.7482 -0.0080
844.4815 -0.0080
844.2147 -0.0080
843.9480 -0.0081
843.6812 -0.0086
843.4145 -0.0088
843.1477 -0.0083
842.8810 -0.0080
842.6142 -0.0080
842.3474 -0.0074
842.0807 -0.0063
841.8139 -0.0067
841.5472 -0.0078
841.2804 -0.0071
841.0137 -0.0061
840.7469 -0.0060
840.4802 -0.0060
840.2134 -0.0054
839.9466 -0.0048
839.6799 -0.0037
839.4131 -0.0030
839.1464 -0.0030
838.8796 -0.0030
838.6129 -0.0030
838.3461 -0.0027
838.0794 -0.0022
837.8126 -0.0005
837.5458 0.0016
837.2791 0.0038
837.0123 0.0059
836.7456 0.0101
836.4788 0.0144
836.2121 0.0192
835.9453 0.0249
835.6786 0.0339
835.4118 0.0441
835.1450 0.0563
834.8783 0.0701
834.6115 0.0855
834.3448 0.1038
834.0780 0.1241
833.8113 0.1496
833.5445 0.1774
833.2778 0.2131
833.0110 0.2505
832.7442 0.2939
832.4775 0.3390
832.2107 0.3976
831.9440 0.4596
831.6772 0.5337
831.4105 0.6201
831.1437 0.7305
830.8770 0.8803
830.6102 1.0761
830.3434 1.3633
830.0767 1.7149
829.8099 2.2322
829.5432 2.8164
829.2764 3.6680
829.0097 4.5713
828.7429 5.8560
828.4762 7.1975
828.2094 8.9715
827.9426 10.8603
827.6759 13.1688
827.4091 15.6758
827.1424 18.5669
826.8756 21.7286
826.6089 25.2002
826.3421 28.9569
826.0754 32.9102
825.8086 37.0779
825.5418 41.3300
825.2751 45.7048
825.0083 50.1026
824.7416 54.4729
824.4748 58.8256
824.2081 63.0174
823.9413 67.1323
823.6746 70.9747
823.4078 74.6551
823.1410 78.0290
822.8743 81.1264
822.6075 83.9135
822.3408 86.3569
822.0740 88.5683
821.8073 90.3924
821.5405 92.0676
821.2738 93.3514
821.0070 94.5651
820.7402 95.4287
820.4735 96.2511
820.2067 96.7857
819.9400 97.2771
819.6732 97.6196
819.4065 97.9179
819.1397 98.1346
818.8730 98.3133
818.6062 98.4504
818.3394 98.5516
818.0727 98.6289
817.8059 98.7008
817.5392 98.7707
817.2724 98.8356
817.0057 98.8996
816.7389 98.9433
816.4722 98.9884
816.2054 99.0498
815.9386 99.1046
815.6719 99.1377
815.4051 99.1683
815.1384 99.1944
814.8716 99.2175
814.6049 99.2372
814.3381 99.2479
814.0714 99.2527
813.8046 99.2681
813.5378 99.2873
813.2711 99.2978
813.0043 99.3069
812.7376 99.3175
812.4708 99.3285
812.2041 99.3424
811.9373 99.3610
811.6706 99.3952
811.4038 99.4170
811.1370 99.4170
810.8703 99.4108
810.6035 99.3980
810.3368 99.3943
810.0700 99.3964
809.8033 99.3840
809.5365 99.3664
809.2698 99.3419
809.0030 99.3163
808.7362 99.3002
808.4695 99.2811
808.2027 99.2378
807.9360 99.1949
807.6692 99.1527
807.4025 99.1116
807.1357 99.0721
806.8690 99.0321
806.6022 98.9915
806.3354 98.9375
806.0687 98.8751
805.8019 98.8154
805.5352 98.7567
805.2684 98.7073
805.0017 98.6593
804.7349 98.5440
804.4682 98.4189
804.2014 98.2252
803.9346 97.9892
803.6679 97.6227
803.4011 97.1676
803.1344 96.5620
802.8676 95.8106
802.6009 94.9111
802.3341 93.7588
802.0674 92.4528
801.8006 90.8082
801.5338 89.0492
801.2671 86.8057
801.0003 84.4919
800.7336 81.6298
800.4668 78.6975
800.2001 75.2761
799.9333 71.7403
799.6666 67.8617
799.3998 63.8699
799.1330 59.6898
798.8663 55.4279
798.5995 51.0846
798.3328 46.7620
798.0660 42.4518
797.7993 38.2411
797.5325 34.0632
797.2658 30.1621
796.9990 26.3012
796.7322 22.8835
796.4655 19.5377
796.1987 16.6754
795.9320 13.9611
795.6652 11.6793
795.3985 9.6014
795.1317 7.8552
794.8650 6.3418
794.5982 5.0555
794.3314 4.0099
794.0647 3.1046
793.7979 2.4376
793.5312 1.8470
793.2644 1.4642
792.9977 1.1103
792.7309 0.9145
792.4642 0.7309
792.1974 0.6258
791.9306 0.5307
791.6639 0.4640
791.3971 0.4035
791.1304 0.3528
790.8636 0.3081
790.5969 0.2691
790.3301 0.2346
790.0634 0.2026
789.7966 0.1767
789.5298 0.1527
789.2631 0.1325
788.9963 0.1128
788.7296 0.0973
788.4628 0.0822
788.1961 0.0694
787.9293 0.0576
787.6626 0.0485
787.3958 0.0405
787.1290 0.0341
786.8623 0.0280
786.5955 0.0221
786.3288 0.0173
786.0620 0.0130
785.7953 0.0095
785.5285 0.0063
785.2618 0.0046
784.9950 0.0029
784.7282 0.0003
784.4615 -0.0021
784.1947 -0.0026
783.9280 -0.0033
783.6612 -0.0044
783.3945 -0.0050
783.1277 -0.0050
782.8610 -0.0050
782.5942 -0.0050
782.3274 -0.0050
782.0607 -0.0050
781.7939 -0.0050
781.5272 -0.0050
781.2604 -0.0050
780.9937 -0.0050
780.7269 -0.0050
780.4602 -0.0048
780.1934 -0.0038
779.9266 -0.0030
779.6599 -0.0030
779.3931 -0.0030
779.1264 -0.0030
778.8596 -0.0030
778.5929 -0.0030
778.3261 -0.0030
778.0594 -0.0030
777.7926 -0.0030
777.5258 -0.0030
777.2591 -0.0030
776.9923 -0.0030
776.7256 -0.0030
776.4588 -0.0030
776.1921 -0.0030
775.9253 -0.0030
775.6586 -0.0030
775.3918 -0.0030
775.1250 -0.0030
774.8583 -0.0030
774.5915 -0.0030
774.3248 -0.0030
774.0580 -0.0030
773.7913 -0.0030
773.5245 -0.0030
773.2578 -0.0030
772.9910 -0.0030
772.7242 -0.0030
772.4575 -0.0032
772.1907 -0.0042
771.9240 -0.0050
771.6572 -0.0050
771.3905 -0.0050
771.1237 -0.0050
770.8570 -0.0050
770.5902 -0.0050
770.3234 -0.0050
770.0567 -0.0050
769.7899 -0.0050
769.5232 -0.0050
769.2564 -0.0050
768.9897 -0.0050
768.7229 -0.0050
768.4562 -0.0050
768.1894 -0.0050
767.9226 -0.0050
767.6559 -0.0050
767.3891 -0.0050
767.1224 -0.0050
766.8556 -0.0050
766.5889 -0.0050
766.3221 -0.0043
766.0554 -0.0032
765.7886 -0.0030
765.5218 -0.0030
765.2551 -0.0040
764.9883 -0.0050
764.7216 -0.0039
764.4548 -0.0030
764.1881 -0.0030
763.9213 -0.0030
763.6546 -0.0030
763.3878 -0.0030
763.1210 -0.0030
762.8543 -0.0030
762.5875 -0.0030
762.3208 -0.0030
762.0540 -0.0030
761.7873 -0.0030
761.5205 -0.0030
761.2538 -0.0030
760.9870 -0.0030
760.7202 -0.0030
760.4535 -0.0030
760.1867 -0.0030
759.9200 -0.0030
759.6532 -0.0030
759.3865 -0.0030
759.1197 -0.0030
758.8530 -0.0030
758.5862 -0.0030
758.3194 -0.0030
758.0527 -0.0030
757.7859 -0.0030
757.5192 -0.0030
757.2524 -0.0030
756.9857 -0.0030
756.7189 -0.0030
756.4522 -0.0030
756.1854 -0.0030
755.9186 -0.0030
755.6519 -0.0030
755.3851 -0.0030
755.1184 -0.0030
754.8516 -0.0030
754.5849 -0.0030
754.3181 -0.0030
754.0514 -0.0030
753.7846 -0.0026
753.5178 -0.0020
753.2511 -0.0020
752.9843 -0.0020
752.7176 -0.0020
752.4508 -0.0021
752.1841 -0.0026
751.9173 -0.0030
751.6506 -0.0030
751.3838 -0.0030
751.1170 -0.0030
750.8503 -0.0030
750.5835 -0.0030
750.3168 -0.0030
750.0500 -0.0030
749.7833 -0.0030
749.5165 -0.0030
749.2497 -0.0030
748.9830 -0.0030
748.7162 -0.0030
748.4495 -0.0030
748.1827 -0.0030
747.9160 -0.0030
747.6492 -0.0030
747.3825 -0.0030
747.1157 -0.0030
746.8489 -0.0030
746.5822 -0.0030
746.3154 -0.0030
746.0487 -0.0030
745.7819 -0.0030
745.5152 -0.0030
745.2484 -0.0030
744.9817 -0.0030
744.7149 -0.0030
744.4481 -0.0030
744.1814 -0.0030
743.9146 -0.0030
743.6479 -0.0030
743.3811 -0.0030
743.1144 -0.0030
742.8476 -0.0030
742.5809 -0.0030
742.3141 -0.0030
742.0473 -0.0030
741.7806 -0.0030
741.5138 -0.0030
741.2471 -0.0030
740.9803 -0.0030
740.7136 -0.0030
740.4468 -0.0030
740.1801 -0.0030
739.9133 -0.0028
739.6465 -0.0023
739.3798 -0.0020
739.1130 -0.0020
738.8463 -0.0020
738.5795 -0.0020
738.3128 -0.0020
738.0460 -0.0020
737.7793 -0.0020
737.5125 -0.0020
737.2457 -0.0020
736.9790 -0.0020
736.7122 -0.0020
736.4455 -0.0020
736.1787 -0.0020
735.9120 -0.0022
735.6452 -0.0027
735.3785 -0.0030
735.1117 -0.0030
734.8449 -0.0030
734.5782 -0.0030
734.3114 -0.0030
734.0447 -0.0030
733.7779 -0.0030
733.5112 -0.0030
733.2444 -0.0030
732.9777 -0.0030
732.7109 -0.0030
732.4441 -0.0029
732.1774 -0.0024
731.9106 -0.0020
731.6439 -0.0020
731.3771 -0.0020
731.1104 -0.0020
730.8436 -0.0020
730.5769 -0.0020
730.3101 -0.0020
730.0433 -0.0020
729.7766 -0.0020
729.5098 -0.0020
729.2431 -0.0020
728.9763 -0.0020
728.7096 -0.0026
728.4428 -0.0030
728.1761 -0.0030
727.9093 -0.0028
727.6425 -0.0023
727.3758 -0.0020
727.1090 -0.0020
726.8423 -0.0020
726.5755 -0.0020
726.3088 -0.0020
726.0420 -0.0020
725.7753 -0.0020
725.5085 -0.0020
725.2417 -0.0020
724.9750 -0.0020
724.7082 -0.0020
724.4415 -0.0020
724.1747 -0.0020
723.9080 -0.0022
723.6412 -0.0027
723.3745 -0.0027
723.1077 -0.0022
722.8409 -0.0020
722.5742 -0.0020
722.3074 -0.0020
722.0407 -0.0020
721.7739 -0.0020
721.5072 -0.0020
721.2404 -0.0020
720.9737 -0.0020
720.7069 -0.0020
720.4401 -0.0020
720.1734 -0.0020
719.9066 -0.0020
719.6399 -0.0020
719.3731 -0.0023
719.1064 -0.0028
718.8396 -0.0030
718.5729 -0.0030
718.3061 -0.0030
718.0393 -0.0030
717.7726 -0.0030
717.5058 -0.0030
717.2391 -0.0030
716.9723 -0.0029
716.7056 -0.0024
716.4388 -0.0020
716.1721 -0.0020
715.9053 -0.0020
715.6385 -0.0020
715.3718 -0.0015
715.1050 -0.0004
714.8383 0.0000
714.5715 0.0000
714.3048 0.0000
714.0380 0.0000
713.7713 0.0009
713.5045 0.0020
713.2377 0.0020
712.9710 0.0020
712.7042 0.0020
712.4375 0.0020
712.1707 0.0020
711.9040 0.0022
711.6372 0.0027
711.3705 0.0027
711.1037 0.0022
710.8369 0.0020
710.5702 0.0020
710.3034 0.0020
710.0367 0.0020
709.7699 0.0020
709.5032 0.0020
709.2364 0.0009
708.9697 0.0000
708.7029 0.0000
708.4361 0.0000
708.1694 0.0000
707.9026 -0.0004
707.6359 -0.0015
707.3691 -0.0020
707.1024 -0.0020
706.8356 -0.0020
706.5689 -0.0020
706.3021 -0.0020
706.0353 -0.0020
705.7686 -0.0020
705.5018 -0.0020
705.2351 -0.0020
704.9683 -0.0020
704.7016 -0.0020
704.4348 -0.0020
704.1681 -0.0020
703.9013 -0.0022
703.6345 -0.0027
703.3678 -0.0030
703.1010 -0.0030
702.8343 -0.0030
702.5675 -0.0030
702.3008 -0.0026
702.0340 -0.0021
701.7673 -0.0020
701.5005 -0.0020
701.2337 -0.0020
700.9670 -0.0020
700.7002 -0.0020
700.4335 -0.0020
700.1667 -0.0020
699.9000 -0.0020
699.6332 -0.0020
699.3665 -0.0020
699.0997 -0.0020
698.8329 -0.0020
698.5662 -0.0020
698.2994 -0.0020
698.0327 -0.0020
697.7659 -0.0020
697.4992 -0.0020
697.2324 -0.0020
696.9657 -0.0020
696.6989 -0.0020
696.4321 -0.0020
696.1654 -0.0020
695.8986 -0.0020
695.6319 -0.0020
695.3651 -0.0020
695.0984 -0.0020
694.8316 -0.0020
694.5649 -0.0020
694.2981 -0.0020
694.0313 -0.0020
693.7646 -0.0020
693.4978 -0.0020
693.2311 -0.0020
692.9643 -0.0020
692.6976 -0.0020
692.4308 -0.0020
692.1641 -0.0020
691.8973 -0.0016
691.6305 -0.0005
691.3638 0.0000
691.0970 0.0000
690.8303 -0.0007
690.5635 -0.0017
690.2968 -0.0020
690.0300 -0.0020
689.7633 -0.0020
